*RAS_DATA_START
*RAS_HEADER_START
*DISP_FMT_X "%.2f"
*DISP_FMT_Y "%.0f"
*DISP_FULLSCALE "2421833.9339999999"
*DISP_LINE_COLOR "255.0000000000"
*DISP_LINE_STYLE "0.0000000000"
*DISP_LINE_WIDTH "0.2500000000"
*DISP_NOTE "Collected Data-5"
*DISP_OFFSET_Y "0.0000000000"
*DISP_PEAKSEARCH_UNIT_Y "cps"
*DISP_RANGE_BOTTOM "0.0100000000"
*DISP_RANGE_LEFT "10.0000000000"
*DISP_RANGE_LOGCUTOFF "0.0100000000"
*DISP_RANGE_RIGHT "90.0000000000"
*DISP_RANGE_TOP "2421833.9339999999"
*DISP_SCALE_MODE_Y "2.0000000000"
*DISP_TAB_NAME "Theta/2-Theta"
*DISP_TITLE_Y "Intensity"
*DISP_UNIT_Y "cps"
*DISP_WINDOW_NAME "MSG_MACROENGINE"
*FILE_COMMENT " "
*FILE_MD5 ""
*FILE_MEMO " "
*FILE_OPERATOR "administrator"
*FILE_SAMPLE "inznsn"
*FILE_TYPE "RAS_RAW"
*FILE_USERGROUP "System Manager"
*FILE_VERSION "1.0000000000"
*HW_ATTACHMENT_ID "ATT0037"
*HW_ATTACHMENT_NAME "αβ試料台(反射)|Alpha Beta Stage - Refrection"
*HW_COUNTER_ID-0 "CUT0021"
*HW_COUNTER_ID-1 "CUT0020"
*HW_COUNTER_ID-2 ""
*HW_COUNTER_ID-3 "CSL0021"
*HW_COUNTER_ID-4 "CMC0021"
*HW_COUNTER_NAME-0 "SC-70|SC-70"
*HW_COUNTER_NAME-1 "None|None"
*HW_COUNTER_NAME-2 ""
*HW_COUNTER_NAME-3 "BBM|BBM"
*HW_COUNTER_NAME-4 "検出器モノクロメータ|Detector monochromator"
*HW_COUNTER_SELECT_NAME "SC-70|SC-70"
*HW_ECP_HV "618.5000000000"
*HW_ECP_HV_UNIT "V"
*HW_GONIOMETER_ID "GON0024"
*HW_GONIOMETER_NAME "SmartLab(In-plane)|SmartLab(In-plane)"
*HW_GONIOMETER_RADIUS-0 "90.0"
*HW_GONIOMETER_RADIUS-1 "114.0"
*HW_GONIOMETER_RADIUS-2 "190.0"
*HW_GONIOMETER_RADIUS-3 "300.0"
*HW_GONIOMETER_RADIUS-4 "187.0"
*HW_GONIOMETER_RADIUS-5 "300.0"
*HW_GONIOMETER_RADIUS-6 "113.0"
*HW_GONIOMETER_RADIUS-7 "331.0"
*HW_I_OPT_ID-0 "CBO0021"
*HW_I_OPT_ID-1 "ICR0023"
*HW_I_OPT_ID-2 "ISL0021"
*HW_I_OPT_ID-3 "ISO0021"
*HW_I_OPT_ID-4 "IAD0021"
*HW_I_OPT_ID-5 "IPR0001"
*HW_I_OPT_NAME-0 "CBOユニット|CBO unit"
*HW_I_OPT_NAME-1 "標準入射光学ユニット|Standard incident optical unit"
*HW_I_OPT_NAME-2 "標準入射スリットボックス|Standard incident slit box"
*HW_I_OPT_NAME-3 "入射平行スリット|Incident parallel slit"
*HW_I_OPT_NAME-4 "長手制限スリット|Length limiting slit"
*HW_I_OPT_NAME-5 "None|None"
*HW_R_ATTENUATER_AUTOMODE "1"
*HW_R_OPT_ID-0 "RSS0021"
*HW_R_OPT_ID-1 "RCR0022"
*HW_R_OPT_ID-2 "RSO0021"
*HW_R_OPT_ID-3 "RRS0021"
*HW_R_OPT_ID-4 "ATN0021"
*HW_R_OPT_ID-5 "RFL0021"
*HW_R_OPT_ID-6 "RAD0021"
*HW_R_OPT_NAME-0 "標準受光スリットボックス1|Standard receiving slit box # 1"
*HW_R_OPT_NAME-1 "標準受光光学ユニット1|Standard receiving unit # 1"
*HW_R_OPT_NAME-2 "標準受光光学ユニット2|Standard receiving optical unit # 2"
*HW_R_OPT_NAME-3 "標準受光スリットボックス2|Standard receiving slit box # 2"
*HW_R_OPT_NAME-4 "標準アッテネータ|Standard Attenuator"
*HW_R_OPT_NAME-5 "Cu Kβ|Cu K-beta"
*HW_R_OPT_NAME-6 "調整用受光スリット|Alignment receiving slit"
*HW_SAMPLE_HOLDER_ID "SMP0025"
*HW_SAMPLE_HOLDER_NAME "Zステージ単独|Z stage only"
*HW_XG_CURRENT_MAX "200"
*HW_XG_CURRENT_MIN "10"
*HW_XG_CURRENT_RESOLUTION "1"
*HW_XG_CURRENT_UNIT "mA"
*HW_XG_FOCUS "0.4mm x 8mm"
*HW_XG_FOCUS_TYPE "Normal"
*HW_XG_ID ""
*HW_XG_NAME "9kW 開放管(45kV 200mA ID:1700)|9kW Rotating anode(45kV 200mA ID:1700)"
*HW_XG_TARGET_ATOMIC_NUMBER "29.0000000000"
*HW_XG_TARGET_NAME "Cu"
*HW_XG_TYPE "Rota"
*HW_XG_VOLTAGE_MAX "45"
*HW_XG_VOLTAGE_MIN "20"
*HW_XG_VOLTAGE_RESOLUTION "1"
*HW_XG_VOLTAGE_UNIT "kV"
*HW_XG_WATT_MAX "9.00"
*HW_XG_WATT_UNIT "kW"
*HW_XG_WAVE_LENGTH_ALPHA1 "1.540593"
*HW_XG_WAVE_LENGTH_ALPHA2 "1.544414"
*HW_XG_WAVE_LENGTH_BETA "1.392250"
*MEAS_COND_AXIS_NAME-0 "Theta/2-Theta"
*MEAS_COND_AXIS_NAME-1 "2-Theta"
*MEAS_COND_AXIS_NAME-2 "Omega"
*MEAS_COND_AXIS_NAME-3 "2-Theta/Omega"
*MEAS_COND_AXIS_NAME-4 "Chi"
*MEAS_COND_AXIS_NAME-5 "Phi"
*MEAS_COND_AXIS_NAME-6 "2-ThetaChi"
*MEAS_COND_AXIS_NAME-7 "2-ThetaChi/Phi"
*MEAS_COND_AXIS_NAME-8 "Alpha"
*MEAS_COND_AXIS_NAME-9 "Beta"
*MEAS_COND_AXIS_NAME-10 "Gamma"
*MEAS_COND_AXIS_NAME-11 "Z"
*MEAS_COND_AXIS_NAME-12 "Attenuator"
*MEAS_COND_AXIS_NAME-13 "Theta_s"
*MEAS_COND_AXIS_NAME-14 "Theta_d"
*MEAS_COND_AXIS_NAME-15 "Ts"
*MEAS_COND_AXIS_NAME-16 "M"
*MEAS_COND_AXIS_NAME-17 "Incident slit"
*MEAS_COND_AXIS_NAME-18 ""
*MEAS_COND_AXIS_NAME-19 "Zs"
*MEAS_COND_AXIS_NAME-20 "Receiving slit # 1"
*MEAS_COND_AXIS_NAME-21 ""
*MEAS_COND_AXIS_NAME-22 "Receiving slit # 2"
*MEAS_COND_AXIS_NAME-23 ""
*MEAS_COND_AXIS_NAME-24 "Zd"
*MEAS_COND_AXIS_NAME-25 "CBO selection slit"
*MEAS_COND_AXIS_NAME-26 "Incident monochromator"
*MEAS_COND_AXIS_NAME-27 "Incident parallel slit"
*MEAS_COND_AXIS_NAME-28 "Length limiting slit"
*MEAS_COND_AXIS_NAME-29 "Center slit"
*MEAS_COND_AXIS_NAME-30 "Filter"
*MEAS_COND_AXIS_NAME-31 "Receiving optical device"
*MEAS_COND_AXIS_NAME-32 "Receiving parallel slit"
*MEAS_COND_AXIS_NAME-33 "Alignment receiving slit"
*MEAS_COND_AXIS_NAME-34 "Diffracted beam monochromator"
*MEAS_COND_AXIS_NAME-35 "Monochromator slit"
*MEAS_COND_AXIS_NAME-36 "2-ThetaB"
*MEAS_COND_AXIS_NAME-37 "Primary beam"
*MEAS_COND_AXIS_NAME-38 "HV"
*MEAS_COND_AXIS_NAME-39 "PHA"
*MEAS_COND_AXIS_NAME_INTERNAL-0 "TwoThetaTheta"
*MEAS_COND_AXIS_NAME_INTERNAL-1 "TwoTheta"
*MEAS_COND_AXIS_NAME_INTERNAL-2 "Omega"
*MEAS_COND_AXIS_NAME_INTERNAL-3 "TwoThetaOmega"
*MEAS_COND_AXIS_NAME_INTERNAL-4 "Chi"
*MEAS_COND_AXIS_NAME_INTERNAL-5 "Phi"
*MEAS_COND_AXIS_NAME_INTERNAL-6 "TwoThetaChi"
*MEAS_COND_AXIS_NAME_INTERNAL-7 "TwoThetaChiPhi"
*MEAS_COND_AXIS_NAME_INTERNAL-8 "Alpha"
*MEAS_COND_AXIS_NAME_INTERNAL-9 "Beta"
*MEAS_COND_AXIS_NAME_INTERNAL-10 "Gamma"
*MEAS_COND_AXIS_NAME_INTERNAL-11 "Z"
*MEAS_COND_AXIS_NAME_INTERNAL-12 "Attenuator"
*MEAS_COND_AXIS_NAME_INTERNAL-13 "ThetaS"
*MEAS_COND_AXIS_NAME_INTERNAL-14 "ThetaD"
*MEAS_COND_AXIS_NAME_INTERNAL-15 "Ts"
*MEAS_COND_AXIS_NAME_INTERNAL-16 "CBO-M"
*MEAS_COND_AXIS_NAME_INTERNAL-17 "IncidentSlitBox"
*MEAS_COND_AXIS_NAME_INTERNAL-18 "IncidentSlitBox-_Axis"
*MEAS_COND_AXIS_NAME_INTERNAL-19 "Zs"
*MEAS_COND_AXIS_NAME_INTERNAL-20 "ReceivingSlitBox1"
*MEAS_COND_AXIS_NAME_INTERNAL-21 "ReceivingSlitBox1-_Axis"
*MEAS_COND_AXIS_NAME_INTERNAL-22 "ReceivingSlitBox2"
*MEAS_COND_AXIS_NAME_INTERNAL-23 "ReceivingSlitBox2-_Axis"
*MEAS_COND_AXIS_NAME_INTERNAL-24 "ReceivingSlitBox2-Zd"
*MEAS_COND_AXIS_NAME_INTERNAL-25 "CBO"
*MEAS_COND_AXIS_NAME_INTERNAL-26 "IncidentMonochromator"
*MEAS_COND_AXIS_NAME_INTERNAL-27 "IncidentSollerSlit"
*MEAS_COND_AXIS_NAME_INTERNAL-28 "IncidentAxdSlit"
*MEAS_COND_AXIS_NAME_INTERNAL-29 "CenterSlit"
*MEAS_COND_AXIS_NAME_INTERNAL-30 "Filter"
*MEAS_COND_AXIS_NAME_INTERNAL-31 "ReceivingOptics"
*MEAS_COND_AXIS_NAME_INTERNAL-32 "ReceivingSollerSlit"
*MEAS_COND_AXIS_NAME_INTERNAL-33 "ReceivingAxdSlit"
*MEAS_COND_AXIS_NAME_INTERNAL-34 "CounterMonochromator"
*MEAS_COND_AXIS_NAME_INTERNAL-35 "CounterSlit"
*MEAS_COND_AXIS_NAME_INTERNAL-36 "TwoThetaB"
*MEAS_COND_AXIS_NAME_INTERNAL-37 "IncidentPrimary"
*MEAS_COND_AXIS_NAME_INTERNAL-38 "HV"
*MEAS_COND_AXIS_NAME_INTERNAL-39 "PHA"
*MEAS_COND_AXIS_NAME_MAGICNO-0 "83951616.0000000000"
*MEAS_COND_AXIS_NAME_MAGICNO-1 "268632064.0000000000"
*MEAS_COND_AXIS_NAME_MAGICNO-2 "268500992.0000000000"
*MEAS_COND_AXIS_NAME_MAGICNO-3 "83951616.0000000000"
*MEAS_COND_AXIS_NAME_MAGICNO-4 "268500992.0000000000"
*MEAS_COND_AXIS_NAME_MAGICNO-5 "268500992.0000000000"
*MEAS_COND_AXIS_NAME_MAGICNO-6 "268632064.0000000000"
*MEAS_COND_AXIS_NAME_MAGICNO-7 "83951616.0000000000"
*MEAS_COND_AXIS_NAME_MAGICNO-8 "17039360.0000000000"
*MEAS_COND_AXIS_NAME_MAGICNO-9 "17039360.0000000000"
*MEAS_COND_AXIS_NAME_MAGICNO-10 "131072.0000000000"
*MEAS_COND_AXIS_NAME_MAGICNO-11 "285278208.0000000000"
*MEAS_COND_AXIS_NAME_MAGICNO-12 "17301505.0000000000"
*MEAS_COND_AXIS_NAME_MAGICNO-13 "131072.0000000000"
*MEAS_COND_AXIS_NAME_MAGICNO-14 "131072.0000000000"
*MEAS_COND_AXIS_NAME_MAGICNO-15 "318898176.0000000000"
*MEAS_COND_AXIS_NAME_MAGICNO-16 "285343744.0000000000"
*MEAS_COND_AXIS_NAME_MAGICNO-17 "22020097.0000000000"
*MEAS_COND_AXIS_NAME_MAGICNO-18 "25165824.0000000000"
*MEAS_COND_AXIS_NAME_MAGICNO-19 "318898176.0000000000"
*MEAS_COND_AXIS_NAME_MAGICNO-20 "23068673.0000000000"
*MEAS_COND_AXIS_NAME_MAGICNO-21 "25165824.0000000000"
*MEAS_COND_AXIS_NAME_MAGICNO-22 "23068673.0000000000"
*MEAS_COND_AXIS_NAME_MAGICNO-23 "25165824.0000000000"
*MEAS_COND_AXIS_NAME_MAGICNO-24 "285343744.0000000000"
*MEAS_COND_AXIS_NAME_MAGICNO-25 "20971521.0000000000"
*MEAS_COND_AXIS_NAME_MAGICNO-26 "1.0000000000"
*MEAS_COND_AXIS_NAME_MAGICNO-27 "20971521.0000000000"
*MEAS_COND_AXIS_NAME_MAGICNO-28 "20971521.0000000000"
*MEAS_COND_AXIS_NAME_MAGICNO-29 "20971521.0000000000"
*MEAS_COND_AXIS_NAME_MAGICNO-30 "20971521.0000000000"
*MEAS_COND_AXIS_NAME_MAGICNO-31 "20971521.0000000000"
*MEAS_COND_AXIS_NAME_MAGICNO-32 "20971521.0000000000"
*MEAS_COND_AXIS_NAME_MAGICNO-33 "20971521.0000000000"
*MEAS_COND_AXIS_NAME_MAGICNO-34 "20971521.0000000000"
*MEAS_COND_AXIS_NAME_MAGICNO-35 "20971521.0000000000"
*MEAS_COND_AXIS_NAME_MAGICNO-36 "17039360.0000000000"
*MEAS_COND_AXIS_NAME_MAGICNO-37 "20971521.0000000000"
*MEAS_COND_AXIS_NAME_MAGICNO-38 "0.0000000000"
*MEAS_COND_AXIS_NAME_MAGICNO-39 "0.0000000000"
*MEAS_COND_AXIS_OFFSET-0 "-"
*MEAS_COND_AXIS_OFFSET-1 "-0.0090000000"
*MEAS_COND_AXIS_OFFSET-2 "-0.0952000000"
*MEAS_COND_AXIS_OFFSET-3 "-"
*MEAS_COND_AXIS_OFFSET-4 "0.0000000000"
*MEAS_COND_AXIS_OFFSET-5 "0.0000000000"
*MEAS_COND_AXIS_OFFSET-6 "0.0000000000"
*MEAS_COND_AXIS_OFFSET-7 "-"
*MEAS_COND_AXIS_OFFSET-8 "-"
*MEAS_COND_AXIS_OFFSET-9 "-"
*MEAS_COND_AXIS_OFFSET-10 "0.0000000000"
*MEAS_COND_AXIS_OFFSET-11 "-"
*MEAS_COND_AXIS_OFFSET-12 "-"
*MEAS_COND_AXIS_OFFSET-13 "-0.0952000000"
*MEAS_COND_AXIS_OFFSET-14 "0.0862000000"
*MEAS_COND_AXIS_OFFSET-15 "-"
*MEAS_COND_AXIS_OFFSET-16 "-"
*MEAS_COND_AXIS_OFFSET-17 "-"
*MEAS_COND_AXIS_OFFSET-18 "-"
*MEAS_COND_AXIS_OFFSET-19 "-"
*MEAS_COND_AXIS_OFFSET-20 "-"
*MEAS_COND_AXIS_OFFSET-21 "-"
*MEAS_COND_AXIS_OFFSET-22 "-"
*MEAS_COND_AXIS_OFFSET-23 "-"
*MEAS_COND_AXIS_OFFSET-24 "-"
*MEAS_COND_AXIS_OFFSET-25 "-"
*MEAS_COND_AXIS_OFFSET-26 "-"
*MEAS_COND_AXIS_OFFSET-27 "-"
*MEAS_COND_AXIS_OFFSET-28 "-"
*MEAS_COND_AXIS_OFFSET-29 "-"
*MEAS_COND_AXIS_OFFSET-30 "-"
*MEAS_COND_AXIS_OFFSET-31 "-"
*MEAS_COND_AXIS_OFFSET-32 "-"
*MEAS_COND_AXIS_OFFSET-33 "-"
*MEAS_COND_AXIS_OFFSET-34 "-"
*MEAS_COND_AXIS_OFFSET-35 "-"
*MEAS_COND_AXIS_OFFSET-36 "-"
*MEAS_COND_AXIS_OFFSET-37 "-"
*MEAS_COND_AXIS_OFFSET-38 "-"
*MEAS_COND_AXIS_OFFSET-39 "-"
*MEAS_COND_AXIS_POSITION-0 "10.0000000000"
*MEAS_COND_AXIS_POSITION-1 "9.9900000000"
*MEAS_COND_AXIS_POSITION-2 "4.9950000000"
*MEAS_COND_AXIS_POSITION-3 "9.9900000000"
*MEAS_COND_AXIS_POSITION-4 "0.0000000000"
*MEAS_COND_AXIS_POSITION-5 "0.0000000000"
*MEAS_COND_AXIS_POSITION-6 "0.0000000000"
*MEAS_COND_AXIS_POSITION-7 "0.0000000000"
*MEAS_COND_AXIS_POSITION-8 "90.0000000000"
*MEAS_COND_AXIS_POSITION-9 "0.0000000000"
*MEAS_COND_AXIS_POSITION-10 "0.0000000000"
*MEAS_COND_AXIS_POSITION-11 "0.4180200000"
*MEAS_COND_AXIS_POSITION-12 "1/10000"
*MEAS_COND_AXIS_POSITION-13 "4.9950000000"
*MEAS_COND_AXIS_POSITION-14 "4.9950000000"
*MEAS_COND_AXIS_POSITION-15 "0.1822500000"
*MEAS_COND_AXIS_POSITION-16 "0.0000000000"
*MEAS_COND_AXIS_POSITION-17 "2/3deg"
*MEAS_COND_AXIS_POSITION-18 "2.2088000000"
*MEAS_COND_AXIS_POSITION-19 "0.0256200000"
*MEAS_COND_AXIS_POSITION-20 "2/3deg"
*MEAS_COND_AXIS_POSITION-21 "1.3138000000"
*MEAS_COND_AXIS_POSITION-22 "0.450mm"
*MEAS_COND_AXIS_POSITION-23 "0.4500000000"
*MEAS_COND_AXIS_POSITION-24 "0.1993800000"
*MEAS_COND_AXIS_POSITION-25 "BB"
*MEAS_COND_AXIS_POSITION-26 "0.0000000000"
*MEAS_COND_AXIS_POSITION-27 "Soller_slit_5.0deg"
*MEAS_COND_AXIS_POSITION-28 "10.0mm"
*MEAS_COND_AXIS_POSITION-29 "None"
*MEAS_COND_AXIS_POSITION-30 "None"
*MEAS_COND_AXIS_POSITION-31 "PSA_open"
*MEAS_COND_AXIS_POSITION-32 "Soller_slit_5.0deg"
*MEAS_COND_AXIS_POSITION-33 "None"
*MEAS_COND_AXIS_POSITION-34 "Bent"
*MEAS_COND_AXIS_POSITION-35 "BBM"
*MEAS_COND_AXIS_POSITION-36 "9.9900000000"
*MEAS_COND_AXIS_POSITION-37 "None"
*MEAS_COND_AXIS_POSITION-38 "618.5000000000"
*MEAS_COND_AXIS_POSITION-39 "550.0000000000"
*MEAS_COND_AXIS_UNIT-0 "deg"
*MEAS_COND_AXIS_UNIT-1 "deg"
*MEAS_COND_AXIS_UNIT-2 "deg"
*MEAS_COND_AXIS_UNIT-3 "deg"
*MEAS_COND_AXIS_UNIT-4 "deg"
*MEAS_COND_AXIS_UNIT-5 "deg"
*MEAS_COND_AXIS_UNIT-6 "deg"
*MEAS_COND_AXIS_UNIT-7 "deg"
*MEAS_COND_AXIS_UNIT-8 "deg"
*MEAS_COND_AXIS_UNIT-9 "deg"
*MEAS_COND_AXIS_UNIT-10 "mm"
*MEAS_COND_AXIS_UNIT-11 "mm"
*MEAS_COND_AXIS_UNIT-12 ""
*MEAS_COND_AXIS_UNIT-13 "deg"
*MEAS_COND_AXIS_UNIT-14 "deg"
*MEAS_COND_AXIS_UNIT-15 "mm"
*MEAS_COND_AXIS_UNIT-16 "pulse"
*MEAS_COND_AXIS_UNIT-17 ""
*MEAS_COND_AXIS_UNIT-18 "mm"
*MEAS_COND_AXIS_UNIT-19 "mm"
*MEAS_COND_AXIS_UNIT-20 ""
*MEAS_COND_AXIS_UNIT-21 "mm"
*MEAS_COND_AXIS_UNIT-22 ""
*MEAS_COND_AXIS_UNIT-23 "mm"
*MEAS_COND_AXIS_UNIT-24 "mm"
*MEAS_COND_AXIS_UNIT-25 ""
*MEAS_COND_AXIS_UNIT-26 ""
*MEAS_COND_AXIS_UNIT-27 ""
*MEAS_COND_AXIS_UNIT-28 ""
*MEAS_COND_AXIS_UNIT-29 ""
*MEAS_COND_AXIS_UNIT-30 ""
*MEAS_COND_AXIS_UNIT-31 ""
*MEAS_COND_AXIS_UNIT-32 ""
*MEAS_COND_AXIS_UNIT-33 ""
*MEAS_COND_AXIS_UNIT-34 ""
*MEAS_COND_AXIS_UNIT-35 ""
*MEAS_COND_AXIS_UNIT-36 "deg"
*MEAS_COND_AXIS_UNIT-37 ""
*MEAS_COND_AXIS_UNIT-38 "V"
*MEAS_COND_AXIS_UNIT-39 "mV"
*MEAS_COND_COUNTER_CNTLOSS_CORR "1.0000000000"
*MEAS_COND_COUNTER_PHABASE "550.0000000000"
*MEAS_COND_COUNTER_PHAWINDOW "878.7500000000"
*MEAS_COND_COUNTER_PHA_UNIT "mV"
*MEAS_COND_COUNTER_TAUDIFF "0.2230000000"
*MEAS_COND_COUNTER_TAUINT "0.7199000000"
*MEAS_COND_IRRADIATION_MODE "OFF"
*MEAS_COND_IRRADIATION_WIDTH ""
*MEAS_COND_OPT_ATTR "Bragg-Brentano focusing"
*MEAS_COND_OPT_NAME "@BB focusing"
*MEAS_COND_UNSYMMETRIC_MODE "OFF"
*MEAS_COND_XG_CURRENT "150.0000000000"
*MEAS_COND_XG_VOLTAGE "40.0000000000"
*MEAS_COND_XG_WAVE_TYPE "Ka"
*MEAS_DATA_COUNT "4001.0000000000"
*MEAS_SCAN_AXIS_X "Theta/2-Theta"
*MEAS_SCAN_AXIS_X_INTERNAL "TwoThetaTheta"
*MEAS_SCAN_END_TIME "05/17/17 11:16:55"
*MEAS_SCAN_MODE "CONTINUOUS"
*MEAS_SCAN_MONITOR "0"
*MEAS_SCAN_RESOLUTION_X "0.0002"
*MEAS_SCAN_SPEED "6.0"
*MEAS_SCAN_SPEED_UNIT "deg/min"
*MEAS_SCAN_START "10.0000000000"
*MEAS_SCAN_START_TIME "05/17/17 11:02:51"
*MEAS_SCAN_STEP "0.0200000000"
*MEAS_SCAN_STOP "90.0000000000"
*MEAS_SCAN_UNIT_X "deg"
*MEAS_SCAN_UNIT_Y "counts"
*RAS_HEADER_END
*RAS_INT_START
10.0000 52.0000 1.0000
10.0200 42.0000 1.0000
10.0400 48.0000 1.0000
10.0600 47.0000 1.0000
10.0800 39.0000 1.0000
10.1000 36.0000 1.0000
10.1200 45.0000 1.0000
10.1400 62.0000 1.0000
10.1600 50.0000 1.0000
10.1800 41.0000 1.0000
10.2000 41.0000 1.0000
10.2200 45.0000 1.0000
10.2400 45.0000 1.0000
10.2600 41.0000 1.0000
10.2800 48.0000 1.0000
10.3000 47.0000 1.0000
10.3200 43.0000 1.0000
10.3400 41.0000 1.0000
10.3600 46.0000 1.0000
10.3800 34.0000 1.0000
10.4000 38.0000 1.0000
10.4200 44.0000 1.0000
10.4400 42.0000 1.0000
10.4600 38.0000 1.0000
10.4800 50.0000 1.0000
10.5000 43.0000 1.0000
10.5200 36.0000 1.0000
10.5400 46.0000 1.0000
10.5600 32.0000 1.0000
10.5800 34.0000 1.0000
10.6000 39.0000 1.0000
10.6200 33.0000 1.0000
10.6400 50.0000 1.0000
10.6600 29.0000 1.0000
10.6800 43.0000 1.0000
10.7000 44.0000 1.0000
10.7200 46.0000 1.0000
10.7400 33.0000 1.0000
10.7600 39.0000 1.0000
10.7800 47.0000 1.0000
10.8000 37.0000 1.0000
10.8200 43.0000 1.0000
10.8400 37.0000 1.0000
10.8600 40.0000 1.0000
10.8800 39.0000 1.0000
10.9000 53.0000 1.0000
10.9200 48.0000 1.0000
10.9400 44.0000 1.0000
10.9600 52.0000 1.0000
10.9800 50.0000 1.0000
11.0000 35.0000 1.0000
11.0200 52.0000 1.0000
11.0400 45.0000 1.0000
11.0600 38.0000 1.0000
11.0800 40.0000 1.0000
11.1000 50.0000 1.0000
11.1200 43.0000 1.0000
11.1400 35.0000 1.0000
11.1600 48.0000 1.0000
11.1800 43.0000 1.0000
11.2000 57.0000 1.0000
11.2200 50.0000 1.0000
11.2400 33.0000 1.0000
11.2600 38.0000 1.0000
11.2800 40.0000 1.0000
11.3000 31.0000 1.0000
11.3200 49.0000 1.0000
11.3400 40.0000 1.0000
11.3600 42.0000 1.0000
11.3800 41.0000 1.0000
11.4000 45.0000 1.0000
11.4200 36.0000 1.0000
11.4400 28.0000 1.0000
11.4600 33.0000 1.0000
11.4800 41.0000 1.0000
11.5000 52.0000 1.0000
11.5200 41.0000 1.0000
11.5400 38.0000 1.0000
11.5600 47.0000 1.0000
11.5800 33.0000 1.0000
11.6000 49.0000 1.0000
11.6200 41.0000 1.0000
11.6400 44.0000 1.0000
11.6600 34.0000 1.0000
11.6800 42.0000 1.0000
11.7000 35.0000 1.0000
11.7200 45.0000 1.0000
11.7400 40.0000 1.0000
11.7600 41.0000 1.0000
11.7800 40.0000 1.0000
11.8000 39.0000 1.0000
11.8200 49.0000 1.0000
11.8400 42.0000 1.0000
11.8600 49.0000 1.0000
11.8800 44.0000 1.0000
11.9000 37.0000 1.0000
11.9200 47.0000 1.0000
11.9400 39.0000 1.0000
11.9600 43.0000 1.0000
11.9800 28.0000 1.0000
12.0000 35.0000 1.0000
12.0200 45.0000 1.0000
12.0400 39.0000 1.0000
12.0600 44.0000 1.0000
12.0800 43.0000 1.0000
12.1000 42.0000 1.0000
12.1200 36.0000 1.0000
12.1400 35.0000 1.0000
12.1600 37.0000 1.0000
12.1800 29.0000 1.0000
12.2000 39.0000 1.0000
12.2200 35.0000 1.0000
12.2400 41.0000 1.0000
12.2600 40.0000 1.0000
12.2800 40.0000 1.0000
12.3000 34.0000 1.0000
12.3200 38.0000 1.0000
12.3400 36.0000 1.0000
12.3600 38.0000 1.0000
12.3800 29.0000 1.0000
12.4000 34.0000 1.0000
12.4200 34.0000 1.0000
12.4400 32.0000 1.0000
12.4600 24.0000 1.0000
12.4800 34.0000 1.0000
12.5000 34.0000 1.0000
12.5200 36.0000 1.0000
12.5400 37.0000 1.0000
12.5600 38.0000 1.0000
12.5800 45.0000 1.0000
12.6000 41.0000 1.0000
12.6200 34.0000 1.0000
12.6400 33.0000 1.0000
12.6600 44.0000 1.0000
12.6800 41.0000 1.0000
12.7000 38.0000 1.0000
12.7200 39.0000 1.0000
12.7400 29.0000 1.0000
12.7600 41.0000 1.0000
12.7800 37.0000 1.0000
12.8000 32.0000 1.0000
12.8200 38.0000 1.0000
12.8400 42.0000 1.0000
12.8600 39.0000 1.0000
12.8800 31.0000 1.0000
12.9000 40.0000 1.0000
12.9200 28.0000 1.0000
12.9400 28.0000 1.0000
12.9600 26.0000 1.0000
12.9800 35.0000 1.0000
13.0000 33.0000 1.0000
13.0200 36.0000 1.0000
13.0400 29.0000 1.0000
13.0600 46.0000 1.0000
13.0800 32.0000 1.0000
13.1000 33.0000 1.0000
13.1200 31.0000 1.0000
13.1400 31.0000 1.0000
13.1600 38.0000 1.0000
13.1800 45.0000 1.0000
13.2000 38.0000 1.0000
13.2200 43.0000 1.0000
13.2400 35.0000 1.0000
13.2600 29.0000 1.0000
13.2800 33.0000 1.0000
13.3000 35.0000 1.0000
13.3200 31.0000 1.0000
13.3400 30.0000 1.0000
13.3600 43.0000 1.0000
13.3800 30.0000 1.0000
13.4000 39.0000 1.0000
13.4200 28.0000 1.0000
13.4400 20.0000 1.0000
13.4600 33.0000 1.0000
13.4800 32.0000 1.0000
13.5000 33.0000 1.0000
13.5200 32.0000 1.0000
13.5400 45.0000 1.0000
13.5600 43.0000 1.0000
13.5800 29.0000 1.0000
13.6000 34.0000 1.0000
13.6200 29.0000 1.0000
13.6400 33.0000 1.0000
13.6600 28.0000 1.0000
13.6800 24.0000 1.0000
13.7000 37.0000 1.0000
13.7200 34.0000 1.0000
13.7400 34.0000 1.0000
13.7600 33.0000 1.0000
13.7800 32.0000 1.0000
13.8000 38.0000 1.0000
13.8200 42.0000 1.0000
13.8400 31.0000 1.0000
13.8600 37.0000 1.0000
13.8800 33.0000 1.0000
13.9000 48.0000 1.0000
13.9200 25.0000 1.0000
13.9400 35.0000 1.0000
13.9600 40.0000 1.0000
13.9800 32.0000 1.0000
14.0000 48.0000 1.0000
14.0200 39.0000 1.0000
14.0400 31.0000 1.0000
14.0600 23.0000 1.0000
14.0800 32.0000 1.0000
14.1000 29.0000 1.0000
14.1200 27.0000 1.0000
14.1400 21.0000 1.0000
14.1600 27.0000 1.0000
14.1800 35.0000 1.0000
14.2000 25.0000 1.0000
14.2200 37.0000 1.0000
14.2400 33.0000 1.0000
14.2600 27.0000 1.0000
14.2800 30.0000 1.0000
14.3000 26.0000 1.0000
14.3200 31.0000 1.0000
14.3400 31.0000 1.0000
14.3600 30.0000 1.0000
14.3800 31.0000 1.0000
14.4000 37.0000 1.0000
14.4200 28.0000 1.0000
14.4400 23.0000 1.0000
14.4600 39.0000 1.0000
14.4800 40.0000 1.0000
14.5000 32.0000 1.0000
14.5200 28.0000 1.0000
14.5400 33.0000 1.0000
14.5600 27.0000 1.0000
14.5800 33.0000 1.0000
14.6000 32.0000 1.0000
14.6200 31.0000 1.0000
14.6400 23.0000 1.0000
14.6600 32.0000 1.0000
14.6800 31.0000 1.0000
14.7000 43.0000 1.0000
14.7200 38.0000 1.0000
14.7400 36.0000 1.0000
